Transmission at 0.00 degrees for unpolarized light
wavelength (nm)               T
     300.000000        0.324810
     301.000000        0.326412
     302.000000        0.327562
     303.000000        0.328221
     304.000000        0.328369
     305.000000        0.328012
     306.000000        0.327180
     307.000000        0.325924
     308.000000        0.324317
     309.000000        0.322448
     310.000000        0.320415
     311.000000        0.318325
     312.000000        0.316286
     313.000000        0.314402
     314.000000        0.312772
     315.000000        0.311485
     316.000000        0.310615
     317.000000        0.310224
     318.000000        0.310355
     319.000000        0.311033
     320.000000        0.312257
     321.000000        0.314000
     322.000000        0.316199
     323.000000        0.318754
     324.000000        0.321515
     325.000000        0.324280
     326.000000        0.326785
     327.000000        0.328708
     328.000000        0.329674
     329.000000        0.329270
     330.000000        0.327083
     331.000000        0.322738
     332.000000        0.315957
     333.000000        0.306605
     334.000000        0.294733
     335.000000        0.280586
     336.000000        0.264580
     337.000000        0.247250
     338.000000        0.229183
     339.000000        0.210952
     340.000000        0.193055
     341.000000        0.175890
     342.000000        0.159741
     343.000000        0.144781
     344.000000        0.131094
     345.000000        0.118693
     346.000000        0.107539
     347.000000        0.097561
     348.000000        0.088669
     349.000000        0.080766
     350.000000        0.073752
     351.000000        0.067532
     352.000000        0.062016
     353.000000        0.057123
     354.000000        0.052779
     355.000000        0.048917
     356.000000        0.045482
     357.000000        0.042420
     358.000000        0.039689
     359.000000        0.037248
     360.000000        0.035064
     361.000000        0.033108
     362.000000        0.031354
     363.000000        0.029779
     364.000000        0.028363
     365.000000        0.027091
     366.000000        0.025947
     367.000000        0.024918
     368.000000        0.023992
     369.000000        0.023161
     370.000000        0.022415
     371.000000        0.021747
     372.000000        0.021150
     373.000000        0.020618
     374.000000        0.020147
     375.000000        0.019731
     376.000000        0.019367
     377.000000        0.019052
     378.000000        0.018783
     379.000000        0.018557
     380.000000        0.018373
     381.000000        0.018227
     382.000000        0.018119
     383.000000        0.018048
     384.000000        0.018013
     385.000000        0.018012
     386.000000        0.018046
     387.000000        0.018114
     388.000000        0.018217
     389.000000        0.018353
     390.000000        0.018524
     391.000000        0.018731
     392.000000        0.018973
     393.000000        0.019252
     394.000000        0.019570
     395.000000        0.019927
     396.000000        0.020325
     397.000000        0.020767
     398.000000        0.021253
     399.000000        0.021788
     400.000000        0.022374
     401.000000        0.023013
     402.000000        0.023709
     403.000000        0.024466
     404.000000        0.025289
     405.000000        0.026182
     406.000000        0.027149
     407.000000        0.028199
     408.000000        0.029335
     409.000000        0.030567
     410.000000        0.031900
     411.000000        0.033346
     412.000000        0.034912
     413.000000        0.036610
     414.000000        0.038451
     415.000000        0.040448
     416.000000        0.042617
     417.000000        0.044973
     418.000000        0.047533
     419.000000        0.050319
     420.000000        0.053350
     421.000000        0.056652
     422.000000        0.060251
     423.000000        0.064177
     424.000000        0.068462
     425.000000        0.073143
     426.000000        0.078258
     427.000000        0.083853
     428.000000        0.089973
     429.000000        0.096673
     430.000000        0.104008
     431.000000        0.112039
     432.000000        0.120832
     433.000000        0.130458
     434.000000        0.140989
     435.000000        0.152502
     436.000000        0.165074
     437.000000        0.178780
     438.000000        0.193695
     439.000000        0.209882
     440.000000        0.227397
     441.000000        0.246276
     442.000000        0.266533
     443.000000        0.288148
     444.000000        0.311068
     445.000000        0.335188
     446.000000        0.360354
     447.000000        0.386352
     448.000000        0.412912
     449.000000        0.439703
     450.000000        0.466348
     451.000000        0.492434
     452.000000        0.517532
     453.000000        0.541219
     454.000000        0.563102
     455.000000        0.582844
     456.000000        0.600183
     457.000000        0.614943
     458.000000        0.627045
     459.000000        0.636502
     460.000000        0.643412
     461.000000        0.647942
     462.000000        0.650313
     463.000000        0.650779
     464.000000        0.649614
     465.000000        0.647095
     466.000000        0.643490
     467.000000        0.639050
     468.000000        0.634006
     469.000000        0.628559
     470.000000        0.622889
     471.000000        0.617145
     472.000000        0.611454
     473.000000        0.605923
     474.000000        0.600635
     475.000000        0.595658
     476.000000        0.591046
     477.000000        0.586839
     478.000000        0.583067
     479.000000        0.579751
     480.000000        0.576905
     481.000000        0.574539
     482.000000        0.572657
     483.000000        0.571257
     484.000000        0.570339
     485.000000        0.569897
     486.000000        0.569925
     487.000000        0.570414
     488.000000        0.571355
     489.000000        0.572738
     490.000000        0.574553
     491.000000        0.576787
     492.000000        0.579430
     493.000000        0.582469
     494.000000        0.585891
     495.000000        0.589684
     496.000000        0.593833
     497.000000        0.598326
     498.000000        0.603148
     499.000000        0.608283
     500.000000        0.613718
     501.000000        0.619436
     502.000000        0.625421
     503.000000        0.631659
     504.000000        0.638132
     505.000000        0.644823
     506.000000        0.651716
     507.000000        0.658791
     508.000000        0.666031
     509.000000        0.673416
     510.000000        0.680926
     511.000000        0.688540
     512.000000        0.696237
     513.000000        0.703996
     514.000000        0.711793
     515.000000        0.719608
     516.000000        0.727417
     517.000000        0.735197
     518.000000        0.742924
     519.000000        0.750576
     520.000000        0.758130
     521.000000        0.765562
     522.000000        0.772850
     523.000000        0.779973
     524.000000        0.786908
     525.000000        0.793636
     526.000000        0.800136
     527.000000        0.806391
     528.000000        0.812383
     529.000000        0.818095
     530.000000        0.823513
     531.000000        0.828625
     532.000000        0.833418
     533.000000        0.837882
     534.000000        0.842009
     535.000000        0.845793
     536.000000        0.849228
     537.000000        0.852312
     538.000000        0.855044
     539.000000        0.857423
     540.000000        0.859452
     541.000000        0.861134
     542.000000        0.862475
     543.000000        0.863480
     544.000000        0.864158
     545.000000        0.864517
     546.000000        0.864567
     547.000000        0.864320
     548.000000        0.863787
     549.000000        0.862981
     550.000000        0.861915
     551.000000        0.860603
     552.000000        0.859058
     553.000000        0.857296
     554.000000        0.855331
     555.000000        0.853177
     556.000000        0.850850
     557.000000        0.848363
     558.000000        0.845731
     559.000000        0.842969
     560.000000        0.840090
     561.000000        0.837108
     562.000000        0.834035
     563.000000        0.830886
     564.000000        0.827671
     565.000000        0.824404
     566.000000        0.821095
     567.000000        0.817756
     568.000000        0.814396
     569.000000        0.811026
     570.000000        0.807655
     571.000000        0.804292
     572.000000        0.800946
     573.000000        0.797623
     574.000000        0.794332
     575.000000        0.791080
     576.000000        0.787873
     577.000000        0.784717
     578.000000        0.781618
     579.000000        0.778580
     580.000000        0.775610
     581.000000        0.772711
     582.000000        0.769888
     583.000000        0.767144
     584.000000        0.764483
     585.000000        0.761908
     586.000000        0.759422
     587.000000        0.757028
     588.000000        0.754728
     589.000000        0.752524
     590.000000        0.750419
     591.000000        0.748413
     592.000000        0.746510
     593.000000        0.744710
     594.000000        0.743014
     595.000000        0.741424
     596.000000        0.739940
     597.000000        0.738564
     598.000000        0.737296
     599.000000        0.736137
     600.000000        0.735087
     601.000000        0.734147
     602.000000        0.733317
     603.000000        0.732596
     604.000000        0.731985
     605.000000        0.731482
     606.000000        0.731089
     607.000000        0.730803
     608.000000        0.730625
     609.000000        0.730553
     610.000000        0.730588
     611.000000        0.730728
     612.000000        0.730972
     613.000000        0.731319
     614.000000        0.731768
     615.000000        0.732319
     616.000000        0.732969
     617.000000        0.733717
     618.000000        0.734563
     619.000000        0.735505
     620.000000        0.736541
     621.000000        0.737669
     622.000000        0.738889
     623.000000        0.740198
     624.000000        0.741595
     625.000000        0.743078
     626.000000        0.744645
     627.000000        0.746294
     628.000000        0.748024
     629.000000        0.749831
     630.000000        0.751715
     631.000000        0.753672
     632.000000        0.755701
     633.000000        0.757800
     634.000000        0.759965
     635.000000        0.762195
     636.000000        0.764487
     637.000000        0.766839
     638.000000        0.769248
     639.000000        0.771711
     640.000000        0.774226
     641.000000        0.776789
     642.000000        0.779399
     643.000000        0.782053
     644.000000        0.784746
     645.000000        0.787477
     646.000000        0.790242
     647.000000        0.793039
     648.000000        0.795864
     649.000000        0.798714
     650.000000        0.801586
     651.000000        0.804476
     652.000000        0.807383
     653.000000        0.810301
     654.000000        0.813228
     655.000000        0.816161
     656.000000        0.819096
     657.000000        0.822030
     658.000000        0.824960
     659.000000        0.827881
     660.000000        0.830792
     661.000000        0.833689
     662.000000        0.836568
     663.000000        0.839425
     664.000000        0.842259
     665.000000        0.845065
     666.000000        0.847841
     667.000000        0.850583
     668.000000        0.853288
     669.000000        0.855953
     670.000000        0.858576
     671.000000        0.861152
     672.000000        0.863681
     673.000000        0.866158
     674.000000        0.868581
     675.000000        0.870947
     676.000000        0.873255
     677.000000        0.875502
     678.000000        0.877685
     679.000000        0.879802
     680.000000        0.881852
     681.000000        0.883832
     682.000000        0.885740
     683.000000        0.887576
     684.000000        0.889337
     685.000000        0.891022
     686.000000        0.892630
     687.000000        0.894159
     688.000000        0.895609
     689.000000        0.896979
     690.000000        0.898268
     691.000000        0.899475
     692.000000        0.900600
     693.000000        0.901642
     694.000000        0.902602
     695.000000        0.903480
     696.000000        0.904274
     697.000000        0.904987
     698.000000        0.905617
     699.000000        0.906165
     700.000000        0.906632
     701.000000        0.907019
     702.000000        0.907327
     703.000000        0.907555
     704.000000        0.907706
     705.000000        0.907781
     706.000000        0.907781
     707.000000        0.907707
     708.000000        0.907561
     709.000000        0.907344
     710.000000        0.907057
     711.000000        0.906703
     712.000000        0.906283
     713.000000        0.905799
     714.000000        0.905252
     715.000000        0.904645
     716.000000        0.903979
     717.000000        0.903256
     718.000000        0.902478
     719.000000        0.901647
     720.000000        0.900765
     721.000000        0.899834
     722.000000        0.898855
     723.000000        0.897832
     724.000000        0.896765
     725.000000        0.895657
     726.000000        0.894510
     727.000000        0.893326
     728.000000        0.892107
     729.000000        0.890855
     730.000000        0.889571
     731.000000        0.888258
     732.000000        0.886918
     733.000000        0.885552
     734.000000        0.884162
     735.000000        0.882750
     736.000000        0.881319
     737.000000        0.879869
     738.000000        0.878403
     739.000000        0.876922
     740.000000        0.875428
     741.000000        0.873923
     742.000000        0.872407
     743.000000        0.870884
     744.000000        0.869353
     745.000000        0.867817
     746.000000        0.866278
     747.000000        0.864736
     748.000000        0.863193
     749.000000        0.861651
     750.000000        0.860110
     751.000000        0.858572
     752.000000        0.857038
     753.000000        0.855509
     754.000000        0.853987
     755.000000        0.852472
     756.000000        0.850966
     757.000000        0.849470
     758.000000        0.847983
     759.000000        0.846509
     760.000000        0.845047
     761.000000        0.843598
     762.000000        0.842163
     763.000000        0.840744
     764.000000        0.839339
     765.000000        0.837952
     766.000000        0.836581
     767.000000        0.835229
     768.000000        0.833894
     769.000000        0.832579
     770.000000        0.831283
     771.000000        0.830008
     772.000000        0.828753
     773.000000        0.827519
     774.000000        0.826307
     775.000000        0.825117
     776.000000        0.823950
     777.000000        0.822805
     778.000000        0.821683
     779.000000        0.820585
     780.000000        0.819511
     781.000000        0.818461
     782.000000        0.817436
     783.000000        0.816435
     784.000000        0.815459
     785.000000        0.814508
     786.000000        0.813582
     787.000000        0.812682
     788.000000        0.811807
     789.000000        0.810958
     790.000000        0.810135
     791.000000        0.809338
     792.000000        0.808567
     793.000000        0.807822
     794.000000        0.807104
     795.000000        0.806411
     796.000000        0.805745
     797.000000        0.805105
     798.000000        0.804491
     799.000000        0.803904
     800.000000        0.803343
